! based on Ron's setup
! 

&GENR
    MNEMONIC = 'genray'
    RAYOP = 'netcdf'
    DIELECTRIC_OP = 'enabled'
    R0X =  1.00000
    B0 =  1.00000
    OUTDAT = 'zrn.dat'
    STAT = 'new'
&END

&TOKAMAK
    EQDSKIN = 'g122976.03021'
    INDEXRHO =  2
    IPSI =  1
    IONETWO =  1
    IEFFIC =  2
    PSIFACTR =  0.990000
    DELTRIPL =  0.00000
    NLOOP =  24
    I_RIPPLE =  1
&END

&WAVE
    FRQNCY =  1.2 ! 0.500000
    IOXM =  1
    IOXM_N_NPAR =  -1
    IREFLM =  10
    JWAVE =  1
    ISTART =  2
    DELPWRMN =  0.0100000
    IBW =  0
    I_VGR_INI =  1
    POLDIST_MX =  100000.
&END

&SCATNPER
    ISCAT =  0
&END

&DISPERS
    IB =  2
    ID =  2
    IHERM =  1
    IABSORP =  91
    ISWITCH =  0
    DEL_Y =  500.000
    JY_D =  1
    IDSWITCH =  2
    IABSWITCH =  3
    N_RELT_HARM =  5
    N_RELT_INTGR =  50
    IFLUX =  1
    I_IM_NPERP =  1
    I_GEOM_OPTIC =  1
    RAY_DIRECTION =  1.00000
&END

&NUMERCL
    IRKMETH =  2
    NDIM1 =  6
    ISOLV =  1
    IDIF =  2
    NRELT =  4001
    PRMT1 =  0.00000
    PRMT2 =  999900.
    PRMT3 =  0.0100000
    PRMT4 =  0.00500000
    PRMT6 =  0.00500000
    ICORRECT =  0
    MAXSTEPS_RK =  10000
&END

&OUTPUT
    IWCNTR =  0
    IWOPEN =  1
    IWJ =  1
    ITOOLS =  0
    I_PLOT_B =  0
    I_PLOT_D =  0
&END

&PLASMA
    NDENS =  101
    NBULK =  3
    IZEFF =  2
    IDENS =  1
    TEMP_SCALE = 3*1.00000
    DEN_SCALE = 3*1.00000
&END

&SPECIES
    CHARGE =   1.00000  1.00000   6.00000
    DMAS =   1.00000  3674.00  22044.0
&END

&VARDEN
    VAR0 =  0.00000
&END

&GRILL
    I_N_POLOIDAL =  1
    I_RHO_CUTOFF =  0
    NGRILL =  1
    IGRILLPW =  3
    RHOPSI0 =  0.980000
    THGRILL =  45.0000
    PHIGRILL =  0.00000
    HEIGHT =  0.180000
    NTHIN =  1
    IGRILLTW =  2
    ANMIN =  2.2 ! 3.0
    ANMAX =  0.300000
    NNKPAR =  1
    POWERS =  7.125 ! 15.0
    ANPOLMIN =  -0.0477465
    ANPOLMAX =  0.0477465
    NNKPOL =  1
&END

&DENTAB
  prof = 
       10.3027        6.44188      0.0650695       0.480941       0.552469
       10.2991        6.43992      0.0650497       0.481036       0.552183
       10.2883        6.43431      0.0649930       0.480960       0.551340
       10.2707        6.42540      0.0649030       0.480647       0.549958
       10.2463        6.41315      0.0647793       0.480087       0.548047
       10.2155        6.39780      0.0646242       0.479256       0.545637
       10.1784        6.37940      0.0644384       0.478144       0.542736
       10.1354        6.35822      0.0642244       0.476727       0.539372
       10.0865        6.33420      0.0639818       0.475000       0.535553
       10.0320        6.30756      0.0637127       0.472943       0.531298
       9.97222        6.27849      0.0634191       0.470538       0.526630
       9.90728        6.24703      0.0631013       0.467777       0.521562
       9.83743        6.21332      0.0627608       0.464649       0.516117
       9.76289        6.17749      0.0623989       0.461147       0.510310
       9.68388        6.13964      0.0620166       0.457265       0.504159
       9.60063        6.09993      0.0616154       0.453002       0.497681
       9.51335        6.05842      0.0611962       0.448358       0.490895
       9.42227        6.01526      0.0607602       0.443338       0.483818
       9.32760        5.97054      0.0603085       0.437952       0.476466
       9.22958        5.92435      0.0598419       0.432211       0.468863
       9.12842        5.87680      0.0593616       0.426131       0.461022
       9.02434        5.82797      0.0588684       0.419730       0.452962
       8.91756        5.77796      0.0583633       0.413030       0.444701
       8.80832        5.72689      0.0578473       0.406053       0.436255
       8.69681        5.67479      0.0573211       0.398830       0.427645
       8.58328        5.62179      0.0567857       0.391385       0.418887
       8.46795        5.56795      0.0562419       0.383751       0.410001
       8.35102        5.51336      0.0556905       0.375957       0.401002
       8.23273        5.45811      0.0551325       0.368034       0.391908
       8.11329        5.40227      0.0545684       0.360014       0.382739
       7.99293        5.34594      0.0539995       0.351927       0.373510
       7.87187        5.28919      0.0534261       0.343804       0.364242
       7.75034        5.23210      0.0528495       0.335673       0.354953
       7.62854        5.17477      0.0522704       0.327562       0.345657
       7.50671        5.11727      0.0516896       0.319497       0.336376
       7.38506        5.05971      0.0511081       0.311504       0.327124
       7.26382        5.00215      0.0505268       0.303602       0.317923
       7.14322        4.94474      0.0499469       0.295810       0.308787
       7.02346        4.88753      0.0493690       0.288147       0.299735
       6.90477        4.83062      0.0487942       0.280629       0.290788
       6.78738        4.77412      0.0482235       0.273265       0.281961
       6.67150        4.71814      0.0476580       0.266069       0.273271
       6.55736        4.66279      0.0470989       0.259046       0.264738
       6.44517        4.60815      0.0465470       0.252201       0.256378
       6.33517        4.55436      0.0460036       0.245539       0.248212
       6.22757        4.50152      0.0454699       0.239057       0.240253
       6.12259        4.44974      0.0449469       0.232757       0.232524
       6.02046        4.39916      0.0444359       0.226633       0.225039
       5.92140        4.34987      0.0439381       0.220681       0.217819
       5.82562        4.30201      0.0434546       0.214891       0.210878
       5.73335        4.25568      0.0429867       0.209256       0.204237
       5.64482        4.21104      0.0425358       0.203764       0.197913
       5.56023        4.16818      0.0421028       0.198403       0.191924
       5.47982        4.12725      0.0416894       0.193158       0.186287
       5.40381        4.08838      0.0412967       0.188014       0.181020
       5.33242        4.05167      0.0409260       0.182956       0.176144
       5.26586        4.01728      0.0405786       0.177967       0.171672
       5.20437        3.98534      0.0402559       0.173031       0.167624
       5.14816        3.95596      0.0399592       0.168130       0.164019
       5.09745        3.92928      0.0396897       0.163247       0.160872
       5.05247        3.90543      0.0394488       0.158367       0.158205
       5.01344        3.88453      0.0392377       0.153474       0.156033
       4.98057        3.86672      0.0390578       0.148554       0.154373
       4.95410        3.85212      0.0389103       0.143596       0.153245
       4.93385        3.84046      0.0387925       0.138602       0.152666
       4.91889        3.83066      0.0386936       0.133599       0.152656
       4.90815        3.82156      0.0386016       0.128613       0.153229
       4.90059        3.81204      0.0385054       0.123668       0.154396
       4.89514        3.80136      0.0383976       0.118781       0.156099
       4.89074        3.78905      0.0382733       0.113964       0.158242
       4.88635        3.77463      0.0381275       0.109227       0.160728
       4.88091        3.75760      0.0379555       0.104579       0.163463
       4.87337        3.73746      0.0377522       0.100029       0.166354
       4.86266        3.71374      0.0375126      0.0955846       0.169303
       4.84773        3.68594      0.0372317      0.0912527       0.172217
       4.82753        3.65359      0.0369049      0.0870396       0.175000
       4.80100        3.61619      0.0365272      0.0829508       0.177555
       4.76709        3.57327      0.0360936      0.0789921       0.179789
       4.72473        3.52432      0.0355992      0.0751693       0.181608
       4.67289        3.46889      0.0350393      0.0714870       0.182912
       4.61049        3.40646      0.0344087      0.0679512       0.183611
       4.53649        3.33657      0.0337027      0.0645671       0.183608
       4.44983        3.25873      0.0329164      0.0613403       0.182808
       4.34945        3.17244      0.0320448      0.0582767       0.181115
       4.23430        3.07723      0.0310832      0.0553735       0.178435
       4.10332        2.97264      0.0300266      0.0526369       0.174670
       3.95546        2.85816      0.0288703      0.0499737       0.169743
       3.78967        2.73442      0.0276204      0.0455417       0.163681
       3.60577        2.60134      0.0262762      0.0387630       0.156565
       3.40500        2.45728      0.0248210      0.0320524       0.148474
       3.18879        2.30303      0.0232629      0.0255456       0.139493
       2.95852        2.13926      0.0216087      0.0194564       0.129699
       2.71561        1.96672      0.0198658      0.0139733       0.119175
       2.46147        1.75573      0.0177347     0.00934166       0.118163
       2.19749        1.43328      0.0144776     0.00572681       0.155009
       1.92508        1.06728      0.0107806     0.00311891       0.211267
       1.64565       0.920805     0.00930106     0.00149689       0.178512
       1.36059       0.687669     0.00694615    0.000893886       0.190356
       1.07133       0.574161     0.00579961     0.00120947       0.132899
      0.779249       0.452961     0.00457537     0.00284626      0.0797165
      0.485770       0.290959     0.00293898     0.00743611      0.0461089
&END

&TEMTAB
  prof = 
       3.47920        7.25290        7.25290        24.9034        7.25290
       3.47920        7.25590        7.25590        24.9046        7.25590
       3.47910        7.26440        7.26440        24.9050        7.26440
       3.47900        7.27780        7.27780        24.9057        7.27780
       3.47880        7.29540        7.29540        24.9067        7.29540
       3.47840        7.31650        7.31650        24.9080        7.31650
       3.47800        7.34040        7.34040        24.9095        7.34040
       3.47730        7.36640        7.36640        24.9110        7.36640
       3.47660        7.39380        7.39380        24.9126        7.39380
       3.47560        7.42200        7.42200        24.9141        7.42200
       3.47440        7.45030        7.45030        24.9154        7.45030
       3.47290        7.47790        7.47790        24.9165        7.47790
       3.47120        7.50430        7.50430        24.9171        7.50430
       3.46930        7.52860        7.52860        24.9174        7.52860
       3.46700        7.55030        7.55030        24.9171        7.55030
       3.46450        7.56860        7.56860        24.9161        7.56860
       3.46160        7.58300        7.58300        24.9143        7.58300
       3.45830        7.59250        7.59250        24.9116        7.59250
       3.45470        7.59670        7.59670        24.9079        7.59670
       3.45060        7.59480        7.59480        24.9031        7.59480
       3.44620        7.58610        7.58610        24.8971        7.58610
       3.44130        7.56990        7.56990        24.8897        7.56990
       3.43600        7.54560        7.54560        24.8810        7.54560
       3.43010        7.51250        7.51250        24.8707        7.51250
       3.42380        7.46990        7.46990        24.8588        7.46990
       3.41700        7.41700        7.41700        24.8452        7.41700
       3.40960        7.35330        7.35330        24.8298        7.35330
       3.40170        7.27810        7.27810        24.8126        7.27810
       3.39310        7.19170        7.19170        24.7934        7.19170
       3.38400        7.09560        7.09560        24.7721        7.09560
       3.37420        6.99120        6.99120        24.7487        6.99120
       3.36390        6.87980        6.87980        24.7232        6.87980
       3.35280        6.76290        6.76290        24.6955        6.76290
       3.34110        6.64190        6.64190        24.6654        6.64190
       3.32860        6.51820        6.51820        24.6331        6.51820
       3.31550        6.39320        6.39320        24.5983        6.39320
       3.30160        6.26840        6.26840        24.5611        6.26840
       3.28690        6.14480        6.14480        24.5216        6.14480
       3.27140        6.02270        6.02270        24.4795        6.02270
       3.25520        5.90200        5.90200        24.4350        5.90200
       3.23810        5.78280        5.78280        24.3880        5.78280
       3.22020        5.66500        5.66500        24.3384        5.66500
       3.20140        5.54870        5.54870        24.2865        5.54870
       3.18170        5.43370        5.43370        24.2320        5.43370
       3.16110        5.32000        5.32000        24.1750        5.32000
       3.13950        5.20760        5.20760        24.1155        5.20760
       3.11710        5.09660        5.09660        24.0536        5.09660
       3.09360        4.98680        4.98680        23.9893        4.98680
       3.06920        4.87830        4.87830        23.9226        4.87830
       3.04380        4.77100        4.77100        23.8534        4.77100
       3.01730        4.66490        4.66490        23.7819        4.66490
       2.98970        4.56000        4.56000        23.7080        4.56000
       2.96110        4.45620        4.45620        23.6318        4.45620
       2.93150        4.35360        4.35360        23.5532        4.35360
       2.90070        4.25210        4.25210        23.4723        4.25210
       2.86870        4.15170        4.15170        23.3891        4.15170
       2.83560        4.05230        4.05230        23.3035        4.05230
       2.80140        3.95400        3.95400        23.2155        3.95400
       2.76590        3.85670        3.85670        23.1252        3.85670
       2.72920        3.76040        3.76040        23.0325        3.76040
       2.69130        3.66500        3.66500        22.9373        3.66500
       2.65220        3.57060        3.57060        22.8395        3.57060
       2.61170        3.47710        3.47710        22.7391        3.47710
       2.57000        3.38460        3.38460        22.6360        3.38460
       2.52700        3.29290        3.29290        22.5299        3.29290
       2.48260        3.20200        3.20200        22.4209        3.20200
       2.43680        3.11200        3.11200        22.3085        3.11200
       2.38970        3.02270        3.02270        22.1925        3.02270
       2.34120        2.93430        2.93430        22.0728        2.93430
       2.29120        2.84660        2.84660        21.9490        2.84660
       2.23990        2.75960        2.75960        21.8211        2.75960
       2.18700        2.67340        2.67340        21.6887        2.67340
       2.13270        2.58780        2.58780        21.5516        2.58780
       2.07690        2.50290        2.50290        21.4093        2.50290
       2.01950        2.41860        2.41860        21.2615        2.41860
       1.96070        2.33500        2.33500        21.1076        2.33500
       1.90020        2.25190        2.25190        20.9471        2.25190
       1.83820        2.16940        2.16940        20.7794        2.16940
       1.77450        2.08740        2.08740        20.6036        2.08740
       1.70930        2.00600        2.00600        20.4188        2.00600
       1.64240        1.92510        1.92510        20.2242        1.92510
       1.57380        1.84460        1.84460        20.0185        1.84460
       1.50360        1.76460        1.76460        19.8003        1.76460
       1.43160        1.68500        1.68500        19.5681        1.68500
       1.35790        1.60580        1.60580        19.3223        1.60580
       1.28250        1.52700        1.52700        19.0598        1.52700
       1.19970        1.44850        1.44850        18.7559        1.44850
       1.03560        1.37040        1.37040        18.1212        1.37040
      0.802319        1.29260        1.29260        17.0383        1.29260
      0.605770        1.21500        1.21500        15.8635        1.21500
      0.443689        1.13770        1.13770        14.6221        1.13770
      0.312950        1.06070        1.06070        13.3225        1.06070
      0.210409       0.983849       0.983849        11.9883       0.983849
      0.132940       0.907210       0.907210        10.6091       0.907210
     0.0774011       0.830730       0.830730        9.15584       0.830730
     0.0406669       0.754400       0.754400        7.72926       0.754400
     0.0196031       0.678180       0.678180        6.62298       0.678180
     0.0110720       0.602049       0.602049        5.87329       0.602049
     0.0119430       0.526000       0.526000        5.98269       0.526000
     0.0190811       0.449990       0.449990        6.59607       0.449990
     0.0293530       0.374010       0.374010        7.23744       0.374010
&END

&VFLOWTAB
&END

&ZEFTAB
  zeff1 = 
       2.60870
       2.60840
       2.60770
       2.60640
       2.60460
       2.60240
       2.59970
       2.59650
       2.59290
       2.58880
       2.58430
       2.57930
       2.57390
       2.56810
       2.56190
       2.55510
       2.54800
       2.54040
       2.53240
       2.52400
       2.51510
       2.50580
       2.49600
       2.48580
       2.47520
       2.46410
       2.45250
       2.44050
       2.42810
       2.41520
       2.40190
       2.38810
       2.37390
       2.35930
       2.34430
       2.32890
       2.31300
       2.29680
       2.28030
       2.26340
       2.24630
       2.22880
       2.21120
       2.19340
       2.17540
       2.15740
       2.13930
       2.12140
       2.10350
       2.08590
       2.06870
       2.05180
       2.03550
       2.01980
       2.00500
       1.99100
       1.97800
       1.96630
       1.95580
       1.94680
       1.93940
       1.93370
       1.92990
       1.92800
       1.92830
       1.93100
       1.93660
       1.94520
       1.95670
       1.97070
       1.98680
       2.00470
       2.02410
       2.04450
       2.06580
       2.08750
       2.10950
       2.13140
       2.15310
       2.17430
       2.19470
       2.21420
       2.23250
       2.24920
       2.26420
       2.27700
       2.28740
       2.29570
       2.30260
       2.30810
       2.31230
       2.31520
       2.31660
       2.31630
       2.31420
       2.30960
       2.30170
       2.28870
       2.26710
       2.22760
       2.13900
&END

&TPOPTAB
 prof=21*1.0000
&END

&READ_DISKF
    i_diskf=0
    netcdfnm='netcdfnm.nc'
    jx=200
    lrz=20
    iym=100  
    ngen=1  
    rtem0=10.e0
    r1t=1.e0
    r2t=0.e0      
    rtail=0.0e0      
    ttail=1.e0
    r1h=1.e0
    r2h=0.e0          
    rhot=2.5e-3            
    thotpar=1.e0
    thotper=1.e0     
    hotmnpar=1.e0
    hotmxpar=2.e0   
    hotmnper=1.e0
    hotmxper=2.e0    
    hotexp=0.e0    
    r1b=1.e0
    r2b=2.e0     
    rbeam=0.e0        
    ebeam=1.e0       
    thbeam=30.e0       
    tbeam=1.e0   
&END

&EMISSION
&END
